# WL(nm)    Flux(ergs/cm**2/s/nm)  # binned and reconstructed from V. Bourrier et al. 2020 "MOVES III. Simultaneous X-ray and ultraviolet observations unveiling the variable environment of the hot Jupiter HD 189733b"
1.679     2.1090E+05
1.839     1.0335E+05
1.999     3.6219E+04
2.159     1.1277E+05
2.319     3.2563E+04
2.479     3.8940E+04
2.639     3.1590E+04
2.799     3.5033E+04
2.959     3.0548E+04
3.119     3.1391E+04
3.279     3.5238E+04
3.439     5.1184E+04
3.599     3.7943E+04
3.759     2.4105E+04
3.919     3.1875E+04
4.079     4.3487E+04
4.239     2.8767E+04
4.399     4.3604E+04
4.559     2.7199E+04
4.719     3.2041E+04
4.879     3.6492E+04
5.039     4.8618E+04
5.199     2.7318E+04
5.359     2.9885E+04
5.519     5.5599E+04
5.679     2.3171E+04
5.839     3.1161E+04
5.999     2.6855E+04
6.159     4.1663E+04
6.319     5.5581E+04
6.479     1.7241E+04
6.639     3.6082E+04
6.799     1.8390E+04
6.959     4.3133E+04
7.119     2.5135E+04
7.279     3.5754E+04
7.439     2.0536E+04
7.599     3.8344E+04
7.759     2.1079E+04
7.919     1.9219E+04
8.079     2.2368E+04
8.239     2.9391E+04
8.399     3.1243E+04
8.559     1.5400E+04
8.719     1.5042E+04
8.879     2.4881E+04
9.039     2.1926E+04
9.199     2.0317E+04
9.359     2.7972E+04
9.519     1.6064E+04
9.679     1.9386E+04
9.839     2.1125E+04
9.999     1.7436E+04
10.159    1.5883E+04
10.319    2.6188E+04
10.479    1.4047E+04
10.639    9.1646E+03
10.799    1.3847E+04
10.959    9.3504E+03
11.119    7.6477E+03
11.279    8.0562E+03
11.439    1.4240E+04
11.599    1.2348E+04
11.759    1.4433E+04
11.919    7.5698E+03
12.079    7.7053E+03
12.239    1.3470E+04
12.399    7.4438E+03
12.559    3.4318E+03
12.719    5.5037E+03
12.879    7.6915E+03
13.039    1.1572E+04
13.199    1.1019E+04
13.359    1.8343E+04
13.519    6.6857E+03
13.679    6.1389E+03
13.839    7.9749E+03
13.999    5.8579E+03
14.159    6.8806E+03
14.319    8.3837E+03
14.479    5.2107E+03
14.639    3.7817E+03
14.799    4.7254E+04
14.959    8.9430E+03
15.119    5.4518E+03
15.279    2.3582E+04
15.439    1.1616E+04
15.599    5.9677E+03
15.759    2.0021E+04
15.919    1.0217E+04
16.079    7.2930E+03
16.239    7.9239E+03
16.399    1.6581E+04
16.559    6.2049E+03
16.719    3.2576E+04
16.879    8.4484E+04
17.039    2.3721E+05
17.199    4.5417E+04
17.359    3.3551E+04
17.519    1.9156E+05
17.679    1.3647E+05
17.839    1.4934E+04
17.999    2.2028E+05
18.159    4.7427E+04
18.319    1.2688E+04
18.479    8.2066E+04
18.639    4.7899E+04
18.799    1.7157E+05
18.959    4.0148E+04
19.119    2.6970E+04
19.279    1.9456E+05
19.439    1.6767E+05
19.599    5.6508E+04
19.759    2.2668E+04
19.919    1.8194E+04
20.079    4.9324E+04
20.239    2.0414E+05
20.399    4.5908E+04
20.559    2.2343E+04
20.719    2.1579E+04
20.879    1.7495E+04
21.039    5.1878E+04
21.199    1.1533E+05
21.359    1.3463E+04
21.519    1.9038E+04
21.679    2.1981E+04
21.839    2.9901E+04
21.999    4.9925E+04
22.159    2.6559E+04
22.319    2.0168E+04
22.479    4.7791E+04
22.639    4.8715E+04
22.799    1.8532E+04
22.959    5.7715E+03
23.119    2.1464E+04
23.279    1.5520E+04
23.439    2.7168E+04
23.599    1.0344E+04
23.759    1.3541E+04
23.919    3.0089E+04
24.079    3.3069E+04
24.239    5.5511E+04
24.399    3.1677E+04
24.559    3.5250E+04
24.719    9.8106E+03
24.879    3.2241E+04
25.039    1.5100E+04
25.200    5.2660E+04
25.360    1.1680E+04
25.520    1.8511E+04
25.680    1.6503E+05
25.840    4.0689E+04
25.999    1.8109E+04
26.160    2.7575E+04
26.320    1.9956E+04
26.480    6.2145E+04
26.640    6.4801E+03
26.799    2.9171E+03
26.960    6.4564E+03
27.120    3.7131E+04
27.279    1.5306E+04
27.440    6.8415E+04
27.599    1.6325E+04
27.760    2.8727E+04
27.920    1.1671E+04
28.079    1.1466E+04
28.240    3.1627E+03
28.399    3.5018E+05
28.559    7.7727E+03
28.720    3.5273E+03
28.880    1.8654E+04
29.040    1.4815E+04
29.200    1.7160E+04
29.360    1.1321E+04
29.520    3.8421E+03
29.680    1.9295E+04
29.840    3.2357E+03
29.999    4.8383E+03
30.160    3.2956E+03
30.320    2.3418E+05
30.480    5.2290E+03
30.640    4.9072E+03
30.799    6.7228E+03
30.960    6.6186E+03
31.120    7.1210E+03
31.279    1.7238E+04
31.440    3.6496E+04
31.599    2.3545E+04
31.760    1.1999E+04
31.920    3.0101E+04
32.080    1.7093E+04
32.239    3.1832E+03
32.399    3.8511E+03
32.559    3.7206E+03
32.720    4.6933E+03
32.880    8.0177E+03
33.040    4.2551E+03
33.200    8.6676E+03
33.360    5.2186E+04
33.520    2.0536E+05
33.679    3.2780E+03
33.840    9.9787E+03
33.999    4.6264E+03
34.160    2.1352E+04
34.320    2.4061E+03
34.480    2.1997E+04
34.640    2.4278E+04
34.800    7.0959E+04
34.960    1.7040E+04
35.120    6.1856E+03
35.280    4.8132E+04
35.440    1.5534E+04
35.600    2.0264E+04
35.760    5.2220E+03
35.920    3.5407E+04
36.080    9.5705E+04
36.240    8.7931E+02
36.400    3.7098E+04
36.560    1.5332E+04
36.720    2.7536E+04
36.880    7.6045E+04
37.040    9.0332E+02
37.200    1.8865E+03
37.360    3.4005E+03
37.520    1.5669E+03
37.680    8.7363E+02
37.840    9.9069E+02
38.000    4.0281E+03
38.160    1.8058E+03
38.320    2.7398E+03
38.480    3.1566E+03
38.640    1.5489E+03
38.800    2.5606E+03
38.960    4.3627E+03
39.120    7.0357E+02
39.280    2.0226E+03
39.440    1.8819E+03
39.600    1.3535E+03
39.760    7.2601E+02
39.920    7.7122E+03
40.080    1.6918E+04
40.240    3.0074E+04
40.400    1.0251E+04
40.560    7.7623E+02
40.720    1.2871E+03
40.880    9.7818E+02
41.040    2.9111E+03
41.200    3.5696E+03
41.360    1.5556E+03
41.520    1.3981E+03
41.680    2.6195E+04
41.840    8.9088E+03
42.000    1.7310E+03
42.160    1.4878E+03
42.320    8.8143E+02
42.480    1.1108E+03
42.640    4.7460E+02
42.800    1.1575E+03
42.960    5.6019E+03
43.120    1.3554E+04
43.280    5.8443E+03
43.440    7.8594E+03
43.600    1.7819E+04
43.760    3.4539E+03
43.920    1.4886E+03
44.080    2.1885E+03
44.240    1.0720E+03
44.400    4.1975E+03
44.560    5.0790E+03
44.720    4.2700E+03
44.880    1.1702E+03
45.040    4.8621E+02
45.200    1.0903E+03
45.360    6.8626E+02
45.520    6.6556E+02
45.680    5.5484E+02
45.840    7.1335E+02
46.000    2.1589E+03
46.160    9.6608E+02
46.320    6.4567E+02
46.480    9.8334E+04
46.640    6.9402E+03
46.800    3.2319E+03
46.960    4.0975E+03
47.120    5.6965E+02
47.280    5.1901E+02
47.440    3.8059E+02
47.600    7.4836E+02
47.760    4.0642E+02
47.920    6.6443E+02
48.080    8.5311E+03
48.240    8.4608E+03
48.400    7.5938E+02
48.560    8.7305E+02
48.720    2.2497E+03
48.880    2.6339E+03
49.040    1.7414E+03
49.200    1.9213E+03
49.360    8.7395E+02
49.520    5.7118E+02
49.680    4.0351E+02
49.840    1.3897E+03
50.000    5.9333E+04
50.160    5.2049E+02
50.320    3.8734E+02
50.480    3.6885E+02
50.640    4.2543E+02
50.800    1.1619E+04
50.960    2.8047E+03
51.120    3.4083E+02
51.280    3.7348E+02
51.440    4.4689E+02
51.600    6.7979E+02
51.760    4.6778E+02
51.920    7.6397E+02
52.080    2.9561E+04
52.240    1.1106E+03
52.400    2.9303E+02
52.560    5.1724E+03
52.720    4.3616E+02
52.880    3.7977E+02
53.040    4.9363E+02
53.200    5.9079E+02
53.360    4.3719E+02
53.520    3.1992E+02
53.680    1.4778E+03
53.840    3.4172E+03
54.000    1.3677E+03
54.160    4.5496E+03
54.320    3.7506E+03
54.480    1.1263E+03
54.640    6.1235E+02
54.800    2.8292E+02
54.960    5.8715E+03
55.120    6.6434E+02
55.280    1.1071E+04
55.440    7.9086E+04
55.600    8.4839E+03
55.760    6.3202E+03
55.920    1.7976E+04
56.080    1.6984E+03
56.240    2.1283E+04
56.400    1.7494E+03
56.560    3.3191E+02
56.720    7.7082E+02
56.880    5.8707E+03
57.040    6.3857E+03
57.200    9.3491E+03
57.360    3.4277E+03
57.520    6.1117E+02
57.680    2.5889E+02
57.840    3.0774E+02
58.000    7.4236E+02
58.160    3.8903E+03
58.320    5.7995E+02
58.480    1.6424E+04
58.640    3.4187E+03
58.800    2.5564E+02
58.960    2.9484E+02
59.120    2.6276E+02
59.280    2.8123E+03
59.440    4.5146E+02
59.600    3.9481E+02
59.760    1.2663E+03
59.920    1.2134E+04
60.080    4.6986E+02
60.240    3.4727E+02
60.400    8.8141E+02
60.560    3.1377E+02
60.720    2.6841E+02
60.880    1.0794E+04
61.040    7.0390E+04
61.200    4.7973E+02
61.360    3.3382E+02
61.520    2.7056E+02
61.680    2.3645E+03
61.840    2.8021E+02
62.000    2.8925E+02
62.160    8.5094E+02
62.320    4.1667E+02
62.480    2.8849E+04
62.640    5.1291E+02
62.800    4.7312E+02
62.960    2.8513E+05
63.120    3.7919E+02
63.280    2.6055E+02
63.440    2.9323E+02
63.600    5.4063E+02
63.760    8.0924E+02
63.920    1.7688E+03
64.080    4.0844E+02
64.240    3.6250E+02
64.400    8.8359E+02
64.560    4.8483E+02
64.720    2.5917E+02
64.880    6.9466E+02
65.040    3.2574E+02
65.200    4.4410E+02
65.360    2.8635E+02
65.520    3.0091E+02
65.680    1.6524E+03
65.840    5.2674E+02
66.000    7.0394E+02
66.160    2.8475E+03
66.320    7.9462E+02
66.480    3.0712E+02
66.640    2.8698E+02
66.800    2.6819E+02
66.960    3.5483E+02
67.120    5.7553E+02
67.280    4.4321E+02
67.440    4.2215E+02
67.600    5.5168E+02
67.760    5.9020E+02
67.920    6.8063E+02
68.080    2.6844E+03
68.240    2.1423E+03
68.400    6.9127E+02
68.560    8.1534E+03
68.720    1.8172E+03
68.880    4.0620E+02
69.040    1.0198E+03
69.200    6.4403E+02
69.360    1.6314E+03
69.520    8.5753E+02
69.680    1.3083E+03
69.840    4.0174E+02
70.000    2.2411E+03
70.160    2.5083E+03
70.320    2.1974E+04
70.480    1.1107E+03
70.640    3.6811E+03
70.800    4.5779E+02
70.960    2.9820E+02
71.120    8.3524E+02
71.280    6.4575E+02
71.440    1.1095E+03
71.600    3.0307E+02
71.760    8.3594E+02
71.920    4.4520E+03
72.080    1.2193E+03
72.240    3.8960E+02
72.400    4.4313E+02
72.560    5.0238E+02
72.720    3.0227E+02
72.880    7.4437E+02
73.040    4.6116E+02
73.200    2.9968E+02
73.360    3.1070E+02
73.520    3.1753E+02
73.680    3.2060E+02
73.840    3.3419E+02
74.000    3.0987E+02
74.160    3.4753E+02
74.320    3.0956E+02
74.480    7.6202E+02
74.640    5.9148E+02
74.800    1.1936E+03
74.960    2.8959E+03
75.120    3.8675E+02
75.280    3.7335E+02
75.440    7.6644E+02
75.600    3.3456E+02
75.760    3.6773E+02
75.920    7.7590E+03
76.080    1.4540E+04
76.240    4.8515E+03
76.400    3.0958E+03
76.560    2.6674E+04
76.720    3.3541E+02
76.880    4.1210E+02
77.040    5.2922E+04
77.200    1.0333E+03
77.360    7.4211E+02
77.520    1.6069E+03
77.680    9.1945E+02
77.840    3.7314E+02
78.000    2.7795E+04
78.160    4.1437E+02
78.320    9.7003E+02
78.480    3.9099E+02
78.640    1.3595E+04
78.800    3.1596E+04
78.960    5.7197E+04
79.120    1.4170E+03
79.280    4.0243E+02
79.440    3.8390E+02
79.600    1.1481E+03
79.760    5.7849E+02
79.920    4.3738E+02
80.080    6.4530E+02
80.240    5.0161E+02
80.400    6.3504E+02
80.560    5.2115E+02
80.720    1.1909E+03
80.880    7.0183E+02
81.040    6.7425E+02
81.200    4.3289E+02
81.360    4.7439E+02
81.520    7.9687E+02
81.680    5.7854E+02
81.840    4.9762E+02
82.000    4.9509E+02
82.160    6.8403E+02
82.320    7.8163E+02
82.480    5.3244E+02
82.640    5.6846E+02
82.800    5.0972E+02
82.960    4.8413E+02
83.120    5.3300E+02
83.280    1.6048E+04
83.440    2.9335E+04
83.600    1.5788E+04
83.760    7.8594E+02
83.920    5.4448E+02
84.080    5.6620E+02
84.240    5.2023E+02
84.400    5.9401E+02
84.560    8.7818E+02
84.720    5.6664E+02
84.880    6.6220E+02
85.040    7.5132E+02
85.200    7.1749E+02
85.360    6.1199E+02
85.520    9.3452E+02
85.680    7.5109E+02
85.840    1.3679E+04
86.000    7.6646E+02
86.160    6.1063E+02
86.320    5.9110E+02
86.480    5.9662E+02
86.640    5.9602E+02
86.800    9.3624E+02
86.960    5.9618E+02
87.120    7.3785E+02
87.280    6.8583E+02
87.440    6.4042E+02
87.600    7.7616E+02
87.760    7.5407E+02
87.920    6.3835E+02
88.080    6.9153E+02
88.240    6.7357E+02
88.400    6.6681E+02
88.560    6.4127E+02
88.720    9.1359E+02
88.880    6.5940E+02
89.040    7.8104E+02
89.200    7.7086E+02
89.360    6.9539E+02
89.520    5.4033E+03
89.680    7.1444E+02
89.840    8.3741E+02
90.000    8.8986E+02
90.160    7.4815E+02
90.320    3.4493E+03
90.480    7.4063E+03
90.640    1.0876E+03
90.800    7.3997E+02
90.960    8.2419E+02
91.120    8.2380E+02
91.280    2.8400E+02
91.440    1.4183E+02
91.600    2.0023E+03
91.760    2.6538E+02
91.920    1.7464E+02
92.080    1.8493E+02
92.240    1.5428E+03
92.400    1.4098E+03
92.560    9.7075E+01
92.720    9.6803E+01
92.880    1.0037E+02
93.040    1.1056E+02
93.200    1.0502E+02
93.360    3.9663E+03
93.520    1.0933E+02
93.680    1.9159E+02
93.840    2.0239E+02
94.000    1.0564E+02
94.160    1.0544E+02
94.320    1.3379E+02
94.480    3.2449E+03
94.640    1.4785E+02
94.800    1.0286E+02
94.960    3.2036E+04
95.120    1.2048E+02
95.280    8.7931E+01
95.440    1.0273E+02
95.600    1.6315E+02
95.760    1.2237E+02
95.920    9.0940E+01
96.080    1.0584E+02
96.240    1.4753E+02
96.400    8.9628E+01
96.560    8.7356E+01
96.720    1.3079E+02
96.880    1.0377E+02
97.040    1.0813E+02
97.200    7.1270E+04
97.360    1.2089E+03
97.520    1.2673E+03
97.680    1.2894E+05
97.840    1.5823E+02
98.000    2.3168E+02
98.160    1.0370E+02
98.320    1.0131E+02
98.480    8.5559E+01
98.640    1.2129E+02
98.800    1.3275E+02
98.960    3.8223E+03
99.120    6.8275E+03
99.280    4.7809E+02
99.440    2.2963E+02
99.600    3.0224E+02
99.760    6.3347E+02
99.920    2.1659E+03
100.080   2.4013E+02
100.240   9.7206E+01
100.400   8.2486E+01
100.560   1.6140E+03
100.720   1.2644E+02
100.880   7.8806E+01
101.040   1.2388E+03
101.200   2.4713E+02
101.360   1.2420E+02
101.520   6.6080E+02
101.680   8.6476E+01
101.840   1.7179E+02
102.000   1.6525E+02
102.160   6.5123E+02
102.320   1.1939E+02
102.480   3.3286E+04
102.640   2.9826E+05
102.800   5.6409E+02
102.960   3.1101E+02
103.120   9.5584E+04
103.280   1.9744E+04
103.440   1.2083E+02
103.600   3.8366E+03
103.760   6.6916E+04
103.920   7.4379E+01
104.080   1.4500E+02
104.240   7.3277E+01
104.400   7.6865E+01
104.560   3.3052E+02
104.720   1.5654E+02
104.880   3.6580E+02
105.040   1.2669E+02
105.200   1.0848E+02
105.360   1.2829E+02
105.520   1.1537E+02
105.680   9.6972E+01
105.840   8.8848E+01
106.000   8.7704E+01
106.160   1.0862E+02
106.320   1.3618E+03
106.480   7.8034E+01
106.640   3.5011E+02
106.800   1.1649E+02
106.960   7.7381E+01
107.120   7.0137E+01
107.280   1.9763E+03
107.440   1.0696E+02
107.600   7.3430E+01
107.760   7.9996E+02
107.920   1.2022E+02
108.080   9.9017E+01
108.240   7.8094E+01
108.400   2.2922E+03
108.560   2.6757E+03
108.720   7.9747E+01
108.880   6.8954E+01
109.040   6.6814E+01
109.200   6.6118E+01
109.360   6.7693E+01
109.520   6.7270E+01
109.680   1.9171E+02
109.840   1.7620E+02
110.000   1.2499E+02
110.160   2.3622E+02
110.320   1.5011E+02
110.480   7.4544E+01
110.640   7.9169E+01
110.800   3.3002E+02
110.960   6.4176E+02
111.120   7.3023E+01
111.280   1.5775E+03
111.440   7.4168E+01
111.600   7.5076E+01
111.760   4.8552E+02
111.920   7.4292E+01
112.080   7.2150E+01
112.240   2.5223E+02
112.400   9.5883E+01
112.560   1.4737E+02
112.720   1.0027E+02
112.880   2.7887E+02
113.040   1.1291E+02
113.200   9.9030E+01
113.360   2.3565E+02
113.520   3.2221E+02
113.680   4.0734E+02
113.840   7.1062E+01
114.000   6.3412E+01
114.160   1.6206E+02
114.320   8.3401E+01
114.480   5.3190E+02
114.640   5.1923E+02
114.800   8.2994E+01
114.960   6.3000E+01
115.120   6.9835E+01
115.280   1.7493E+02
115.440   6.7347E+01
115.600   7.0209E+01
115.760   5.9838E+01
115.920   6.6439E+01
116.080   5.9501E+01
116.240   6.1241E+01
116.400   6.4444E+01
116.560   6.6156E+01
116.720   1.1114E+02
116.880   9.0310E+01
117.040   8.3526E+01
117.200   7.1206E+01
117.360   5.9567E+01
117.520   1.0966E+04
117.680   2.3830E+03
117.840   6.0252E+01
118.000   5.7499E+01
118.160   7.1346E+01
118.320   8.3767E+01
118.480   9.1906E+01
118.640   6.1652E+01
118.800   7.8449E+01
118.960   1.4511E+03
119.120   5.6203E+02
119.280   8.5404E+02
119.440   2.8207E+03
119.600   4.6930E+02
119.760   4.8237E+02
119.920   8.5460E+02
120.080   1.3534E+03
120.240   3.8406E+02
120.400   1.1156E+03
120.560   5.5750E+03
120.720   3.2702E+04
120.880   7.9442E+03
121.040   1.3496E+04
121.200   2.8698E+04
121.360   1.0604E+05
121.520   4.6489E+06
121.680   9.8943E+05
121.840   7.7612E+04
122.000   2.0202E+04
122.160   1.0611E+04
122.320   5.8773E+03
122.480   1.7618E+02
122.640   1.9120E+02
122.800   2.0232E+02
122.960   2.2873E+02
123.120   2.1751E+02
123.280   2.2996E+02
123.440   2.6551E+02
123.600   2.7626E+02
123.760   2.7426E+02
123.920   9.1416E+03
124.080   2.9319E+02
124.240   6.9494E+03
124.400   3.3734E+02
124.560   3.3233E+02
124.720   5.4783E+02
124.880   3.7869E+02
125.040   7.9804E+02
125.201   3.9850E+02
125.361   1.2731E+03
125.521   4.0646E+02
125.680   4.1452E+02
125.840   4.2013E+02
126.001   3.1644E+03
126.161   4.9534E+02
126.321   4.5010E+02
126.481   3.2620E+03
126.641   4.6355E+02
126.800   4.7393E+02
126.960   4.7670E+02
127.121   4.8817E+02
127.281   4.9913E+02
127.441   5.2230E+02
127.601   5.2536E+02
127.761   5.8868E+02
127.921   5.3865E+02
128.081   5.6042E+02
128.240   5.3588E+02
128.401   5.4851E+02
128.560   5.8415E+02
128.721   5.6402E+02
128.880   5.6035E+02
129.041   5.7476E+02
129.201   5.8488E+02
129.361   6.0305E+02
129.521   8.4579E+02
129.680   8.4514E+02
129.841   1.5931E+03
130.000   6.0358E+02
130.161   8.1836E+02
130.321   9.1327E+02
130.481   1.0897E+03
130.641   6.5549E+02
130.800   6.2818E+02
130.961   1.2854E+03
131.120   6.4938E+02
131.281   8.8013E+02
131.440   6.3986E+02
131.601   6.5598E+02
131.761   6.5654E+02
131.921   6.6267E+02
132.081   6.5294E+02
132.240   6.5773E+02
132.401   1.0417E+03
132.560   6.6266E+02
132.721   6.7418E+02
132.880   1.0953E+03
133.041   7.4214E+02
133.201   6.8170E+02
133.361   1.4991E+03
133.521   6.0350E+04
133.680   7.0255E+02
133.841   7.4059E+02
134.000   6.8689E+02
134.161   6.9425E+02
134.321   8.0125E+02
134.481   6.9706E+02
134.641   6.9873E+02
134.800   6.9825E+02
134.961   1.9282E+03
135.121   7.3301E+02
135.281   7.0393E+02
135.441   1.1318E+03
135.601   8.9780E+02
135.761   7.1643E+02
135.921   7.4993E+02
136.081   7.2328E+02
136.241   7.2495E+02
136.401   7.4832E+02
136.561   7.4650E+02
136.721   7.1778E+02
136.881   7.4622E+02
137.041   1.2801E+03
137.201   3.4300E+03
137.361   7.4358E+02
137.521   7.4027E+02
137.681   7.2513E+02
137.841   7.3581E+02
138.001   7.2639E+02
138.161   7.2406E+02
138.321   7.2613E+02
138.481   7.3870E+02
138.641   7.2645E+02
138.801   7.3177E+02
138.961   7.4204E+02
139.121   7.3842E+02
139.281   9.8054E+02
139.441   4.0058E+03
139.601   7.3005E+02
139.761   1.3866E+03
139.921   2.0838E+03
140.081   8.5101E+03
140.241   2.5192E+03
140.401   2.9774E+03
140.561   3.7155E+03
140.721   2.0770E+03
140.881   8.3364E+02
141.041   7.5585E+02
141.201   7.4156E+02
141.361   7.4472E+02
141.521   7.3333E+02
141.681   1.2712E+03
141.841   7.3609E+02
142.001   7.8379E+02
142.161   7.3122E+02
142.321   8.3516E+02
142.481   7.9032E+02
142.641   7.3428E+02
142.801   9.1707E+02
142.961   8.2788E+02
143.121   8.6574E+02
143.281   7.5840E+02
143.441   1.0196E+03
143.601   7.2945E+02
143.761   7.3044E+02
143.921   7.3043E+02
144.081   1.0482E+03
144.241   7.9253E+02
144.401   8.7947E+02
144.561   2.0886E+03
144.721   8.6662E+02
144.881   8.2814E+02
145.041   7.7977E+02
145.201   9.3278E+02
145.361   7.7871E+02
145.521   7.2525E+02
145.681   7.3302E+02
145.841   7.2476E+02
146.001   7.2553E+02
146.161   8.3335E+02
146.321   1.0216E+03
146.481   7.2879E+02
146.641   1.6756E+03
146.801   8.1909E+02
146.961   7.3132E+02
147.121   7.3021E+02
147.281   7.2680E+02
147.441   7.5333E+02
147.601   7.1694E+02
147.761   7.1789E+02
147.921   7.1442E+02
148.081   7.1840E+02
148.241   7.6114E+02
148.401   7.2474E+02
148.561   1.2457E+03
148.721   3.2564E+03
148.881   7.1281E+02
149.041   7.0917E+02
149.201   7.7678E+02
149.361   7.6065E+02
149.521   7.3685E+02
149.681   7.3018E+02
149.841   7.0376E+02
150.001   7.0742E+02
150.161   1.0194E+03
150.321   8.3253E+02
150.481   8.9034E+02
150.641   7.0121E+02
150.801   6.9851E+02
150.961   7.1072E+02
151.121   8.3263E+02
151.281   6.9753E+02
151.441   8.0511E+02
151.601   6.9466E+02
151.761   7.1487E+02
151.921   7.3698E+02
152.081   7.6122E+02
152.241   7.0314E+02
